GRIP Electrical Conductivity

REFERENCES: 

Wolff, E.W., J.C. Moore, H.B. Clausen, and C.U. Hammer. 1997. Climatic
implications of background acidity and other chemistry derived from
electrical studies of the Greenland Ice Core Project ice core. Journal of
Geophysical Research 102:26325-26332.

Clausen, H.B., C.U. Hammer, J. Christensen, C.S. Hvidberg, D. Dahl-Jensen,
M.R. Legrand, and J.P. Steffensen. 1995. 1250 years of global volcanism as
revealed by central Greenland ice cores. Ice Core Studies of Global
Biogeochemical cycles, annecy, France, R. Delmas (ed.). NATO Advanced
Sciences Institutes Series 1, 30:175-194.

Wolff, E.W., J.C. Moore, H.B. Clausen, C.U. Hammer, J. Kipfstuhl, and K.
Fuhrer. 1995. Long-term changes in the acid and salt concentrations of the
Greenland Ice Core Project ice core from electrical stratigraphy. Journal
of Geophysical Research 100:16249-16263.

Moore, J.C., E.W. Wolff, H.B. Clausen, C.U. Hammer, M.R. Legrand, and K.
Fuhrer. 1994. Electrical response of the Summit-Greenland ice core to
ammonium, sulphuric acid, and hydrochloric acid. Geophysical Research
Letters 21:565-568.

GRIP Members. 1993. Climate instability during the last interglacial period
recorded in the GRIP ice core. Nature 364:203-207.

Taylor, K.C., C.U. Hammer, R.B. Alley, H.B. Clausen, D. Dahl-Jensen, A.J.
Gow, N.S. Gundestrup, J. Kipfstuhl, J.C. Moore, and E.D. Waddington. 1993.
Electrical conductivity measurements from the GISP2 and GRIP Greenland ice
cores. Nature 366:549-552.

Moore, J.C., R. Mulvaney, and J.G. Paren. 1989. Dielectric stratigraphy of
ice: a new technique for determining total ionic concentrations in polar
ice cores. Geophysical Research Letters 16:1177-1180.

Moore, J.C., and J.G. Paren. 1987. A new technique for dielectric logging
of Antarctic ice cores. Journal de Physique 48:C1/155-C1/160.

DATA DESCRIPTION: 

This file shows the ECM (electrical conductivity measurement) data from
the GRIP ice core. The values were originally gathered continuously for
every 1 cm of the core, but for file are averaged in 55cm intervals. The
depths refers to the top of the sample. The ECM-values are given in
[microeq./kg], obtained by the formula: 

H+=0.085*i[microA]^1.63 for depths above 297 m

and

H+=0.045*i[microA]^1.73 for depths below 297 m

DATA:		

Depth	ECM	Age
Top (m)	(microeq./kg)	Top (yr BP)

0	1.43	-39
0.55	0.83	-38
1.1	0.18	-37
1.65	0.28	-36
2.2	1.36	-35
2.75	1.66	-34
3.3	1.29	-33
3.85	1.96	-32
4.4	1.81	-31
4.95	2.37	-30
5.5	1.71	-29
6.05	1.32	-28
6.6	1.79	-27
7.15	1.67	-26
7.7	1.23	-25
8.25	1.73	-23
8.8	2.07	-22
9.35	1.67	-20
9.9	2.1	-19
10.45	1.33	-18
11	1.78	-17
11.55	1.08	-15
12.1	1.32	-14
12.65	1.11	-13
13.2	1.32	-11
13.75	1.45	-10
14.3	1.39	-8
14.85	1.18	-7
15.4	1.32	-5
15.95	1.06	-4
16.5	1.21	-2
17.05	1.16	-1
17.6	1.23	1
18.15	1.45	2
18.7	1	4
19.25	1.14	5
19.8	1.12	7
20.35	1.17	8
20.9	1.05	10
21.45	0.89	11
22	0.91	13
22.55	0.85	14
23.1	0.85	16
23.65	1.03	17
24.2	0.85	19
24.75	1.14	20
25.3	0.89	22
25.85	0.99	23
26.4	1.1	25
26.95	0.98	26
27.5	1.18	28
28.05	1.16	30
28.6	1.21	31
29.15	1.18	33
29.7	1.17	35
30.25	2	36
30.8	0.81	38
31.35	0.94	40
31.9	1.44	41
32.45	1.41	43
33	1.38	45
33.55	1.2	47
34.1	1.04	49
34.65	0.85	50
35.2	0.83	52
35.75	0.89	54
36.3	0.98	56
36.85	0.95	57
37.4	0.7	59
37.95	0.78	61
38.5	0.57	63
39.05	1.12	64
39.6	0.93	66
40.15	0.84	68
40.7	0.81	70
41.25	0.95	72
41.8	0.97	73
42.35	1.09	75
42.9	1.02	77
43.45	0.81	79
44	0.88	80
44.55	1.09	82
45.1	1.05	84
45.65	1.13	87
46.2	1.17	88
46.75	1.28	90
47.3	1.31	92
47.85	1.16	94
48.4	1.01	96
48.95	0.79	98
49.5	1.12	100
50.05	0.88	102
50.6	1.22	104
51.15	0.92	106
51.7	0.92	108
52.25	0.92	109
52.8	1.07	111
53.35	0.88	113
53.9	1.66	116
54.45	1.03	118
55	1.07	120
55.55	1.18	122
56.1	1.22	124
56.65	1.16	126
57.2	0.77	128
57.75	1.09	130
58.3	1.85	132
58.85	1.44	134
59.4	1.38	136
59.95	1.93	138
60.5	1.02	140
61.05	1.55	142
61.6	1.22	144
62.15	1.23	146
62.7	1.07	148
63.25	1.46	150
63.8	0.87	152
64.35	0.9	154
64.9	1.12	156
65.45	1.16	158
66	1.55	160
66.55	1.88	162
67.1	4.01	164
67.65	1.73	166
68.2	2.02	168
68.75	1.7	170
69.3	1.24	172
69.85	1.58	174
70.4	1.63	177
70.95	1.5	179
71.5	1.2	181
72.05	1.47	183
72.6	1.08	185
73.15	0.96	187
73.7	1.17	189
74.25	1.02	191
74.8	0.81	194
75.35	1.01	196
75.9	1.07	198
76.45	1.16	201
77	0.83	203
77.55	1.29	205
78.1	1.41	207
78.65	1.25	209
79.2	1.11	211
79.75	1.43	214
80.3	1.5	216
80.85	1.69	218
81.4	1.51	220
81.95	1.83	222
82.5	1.47	224
83.05	1.7	226
83.6	1.55	229
84.15	1.26	231
84.7	1.39	234
85.25	1.36	236
85.8	1.49	238
86.35	1.32	240
86.9	1.55	243
87.45	1.3	245
88	1.65	247
88.55	1.63	250
89.1	1.24	253
89.65	1.43	255
90.2	1.57	257
90.75	1.46	260
91.3	1.26	262
91.85	1.55	264
92.4	1.7	267
92.95	1.22	269
93.5	1.55	271
94.05	1.98	274
94.6	1.58	276
95.15	2.02	279
95.7	1.43	281
96.25	1.43	283
96.8	1.67	286
97.35	1.5	288
97.9	1.16	290
98.45	1.49	293
99	1.7	295
99.55	1.45	297
100.1	1.58	300
100.65	1.66	302
101.2	1.22	304
101.75	1.66	307
102.3	0.85	309
102.85	1.7	312
103.4	1.36	314
103.95	1.43	316
104.5	1.24	319
105.05	0.75	321
105.6	1.65	323
106.15	2.17	326
106.7	0.9	328
107.25	0.75	331
107.8	1.06	333
108.35	1.13	336
108.9	1.07	338
109.45	1.6	340
110	1.26	343
110.55	2.35	345
111.1	1.43	348
111.65	1.83	350
112.2	1.45	353
112.75	1.54	355
113.3	1.81	357
113.85	1.28	359
114.4	2.02	362
114.95	1.44	364
115.5	1.22	367
116.05	1.79	369
116.6	1.15	371
117.15	1.28	374
117.7	1.02	376
118.25	1.08	378
118.8	1.17	381
119.35	1.47	384
119.9	1.94	386
120.45	1.3	389
121	1.24	391
121.55	2.17	393
122.1	1.72	396
122.65	1.85	398
123.2	1.18	400
123.75	1.48	403
124.3	1.74	406
124.85	1.44	408
125.4	1.77	410
125.95	1.27	413
126.5	1.24	415
127.05	1.18	417
127.6	1.95	420
128.15	1.96	422
128.7	1.78	425
129.25	1.78	427
129.8	1.38	430
130.35	2.34	432
130.9	2.31	435
131.45	1.55	437
132	1.95	439
132.55	1.51	442
133.1	1.15	444
133.65	1.93	446
134.2	1.75	449
134.75	1.94	451
135.3	1.92	454
135.85	1.34	456
136.4	1.43	459
136.95	0.88	461
137.5	0.82	464
138.05	2.29	466
138.6	2.48	469
139.15	2.61	471
139.7	2.09	474
140.25	1.87	477
140.8	1.81	479
141.35	1.61	482
141.9	2.27	484
142.45	2.4	487
143	1.85	489
143.55	1.86	491
144.1	1.78	494
144.65	1.98	496
145.2	1.82	499
145.75	1.66	501
146.3	2.18	504
146.85	2.84	506
147.4	2.14	508
147.95	1.92	511
148.5	1.59	513
149.05	1.38	516
149.6	1.54	518
150.15	1.58	521
150.7	1.48	523
151.25	1.77	526
151.8	2.42	529
152.35	2.12	531
152.9	1.84	534
153.45	2.19	536
154	2.34	539
154.55	2.3	541
155.1	2.33	543
155.65	1.83	546
156.2	1.78	548
156.75	2.02	551
157.3	1.91	553
157.85	1.8	556
158.4	1.9	558
158.95	2.34	560
159.5	2.32	563
160.05	2.34	565
160.6	2.34	568
161.15	1.95	571
161.7	1.57	574
162.25	1.2	576
162.8	1.43	579
163.35	1.09	581
163.9	1.13	584
164.45	1.2	586
165	1.22	590
165.55	1.22	592
166.1	1.15	595
166.65	1.4	598
167.2	1.13	600
167.75	1.23	603
168.3	1.67	606
168.85	1.7	608
169.4	1.86	611
169.95	1.08	613
170.5	1.95	616
171.05	1.5	619
171.6	2.07	621
172.15	1.89	624
172.7	1.8	626
173.25	1.5	629
173.8	1.59	632
174.35	1.8	634
174.9	1.57	637
175.45	1.21	640
176	1.43	642
176.55	1.49	645
177.1	0.98	647
177.65	1.69	650
178.2	1.57	652
178.75	1.31	655
179.3	1.28	657
179.85	1.45	660
180.4	1.84	662
180.95	1.94	665
181.5	1.25	667
182.05	1.56	670
182.6	1.22	672
183.15	1.5	675
183.7	1.6	677
184.25	1.71	680
184.8	2.34	682
185.35	1.82	685
185.9	1.79	687
186.45	1.93	690
187	5.58	693
187.55	1.44	695
188.1	1.9	698
188.65	1.61	701
189.2	1.67	703
189.75	1.51	706
190.3	1.66	709
190.85	1.14	711
191.4	1.82	714
191.95	1.99	716
192.5	1.32	719
193.05	3.24	721
193.6	2.44	724
194.15	1.89	727
194.7	1.39	729
195.25	1.4	731
195.8	1.65	734
196.35	1.14	737
196.9	0.97	739
197.45	1.09	742
198	1.32	744
198.55	1.29	747
199.1	1.59	749
199.65	1.89	752
200.2	1.13	754
200.75	2.2	757
201.3	2.37	759
201.85	2.08	762
202.4	1.59	765
202.95	2.31	767
203.5	3.04	770
204.05	1.57	773
204.6	1.25	775
205.15	1.79	778
205.7	1.69	781
206.25	0.99	783
206.8	1.17	786
207.35	1.28	788
207.9	1.21	791
208.45	1.19	794
209	1.41	796
209.55	1.9	799
210.1	1.56	802
210.65	1.14	805
211.2	1.55	807
211.75	1.54	810
212.3	1.58	812
212.85	1.63	815
213.4	1.76	817
213.95	1.95	820
214.5	1.82	823
215.05	1.32	825
215.6	1.46	828
216.15	1.3	830
216.7	2.02	833
217.25	1.12	835
217.8	1.23	838
218.35	1.19	841
218.9	2.08	844
219.45	2.61	847
220	1.51	850
220.55	1.56	852
221.1	1.65	855
221.65	1.75	857
222.2	2.17	860
222.75	1.75	863
223.3	2.02	865
223.85	1.74	868
224.4	1.2	870
224.95	1.49	873
225.5	1.95	875
226.05	1.4	878
226.6	1.32	881
227.15	1.63	883
227.7	1.15	886
228.25	1.19	888
228.8	1.61	891
229.35	1.75	894
229.9	1.23	896
230.45	1.56	899
231	1.98	902
231.55	2.08	904
232.1	1.71	907
232.65	1.62	910
233.2	1.49	912
233.75	1.46	915
234.3	1.43	918
234.85	1.19	920
235.4	1.61	923
235.95	2.02	926
236.5	2.26	928
237.05	2.04	931
237.6	1.22	933
238.15	1.67	936
238.7	1.71	939
239.25	1.7	941
239.8	1.7	944
240.35	2.02	947
240.9	2.29	949
241.45	2.08	952
242	2.36	954
242.55	2.3	957
243.1	2.35	960
243.65	2.14	963
244.2	1.77	965
244.75	1.55	968
245.3	2.19	971
245.85	1.1	973
246.4	1.03	976
246.95	1.3	978
247.5	1.53	981
248.05	1.01	984
248.6	0.9	986
249.15	0.9	989
249.7	1.41	991
250.25	1.08	994
250.8	1.53	996
251.35	1.28	998
251.9	1.17	1001
252.45	1.75	1004
253	1.51	1006
253.55	1.99	1009
254.1	2.58	1011
254.65	2.04	1014
255.2	0.98	1017
255.75	6.48	1019
256.3	1.28	1022
256.85	1.36	1025
257.4	1.37	1027
257.95	1.84	1030
258.5	2.11	1032
259.05	2.01	1035
259.6	1.79	1038
260.15	1.84	1040
260.7	2.14	1043
261.25	1.75	1046
261.8	1.14	1048
262.35	1.24	1051
262.9	1.27	1053
263.45	2.4	1056
264	1.96	1058
264.55	2.17	1061
265.1	1.62	1064
265.65	1.62	1066
266.2	1.62	1069
266.75	1.44	1072
267.3	1.42	1075
267.85	1.77	1077
268.4	1.84	1080
268.95	2.96	1083
269.5	1.54	1085
270.05	1.45	1088
270.6	1.22	1091
271.15	1.12	1093
271.7	0.78	1096
272.25	1.44	1099
272.8	2.24	1102
273.35	2.01	1105
273.9	2.18	1107
274.45	1.18	1110
275	1.05	1113
275.55	0.71	1115
276.1	0.78	1117
276.65	0.67	1120
277.2	0.65	1123
277.75	0.61	1125
278.3	1.25	1128
278.85	1.41	1131
279.4	1.94	1133
279.95	1.32	1136
280.5	1.6	1138
281.05	2.02	1141
281.6	1.74	1144
282.15	1.4	1147
282.7	1.16	1150
283.25	1.75	1152
283.8	1.51	1155
284.35	1.98	1158
284.9	2.06	1160
285.45	2.11	1163
286	1.57	1166
286.55	1.49	1168
287.1	1.94	1171
287.65	1.81	1174
288.2	1.5	1176
288.75	1.81	1180
289.3	1.66	1182
289.85	1.95	1185
290.4	2.3	1187
290.95	1.62	1190
291.5	1.26	1192
292.05	1.83	1195
292.6	2.19	1197
293.15	1.67	1200
293.7	2.03	1203
294.25	2.15	1205
294.8	2.31	1208
295.35	2.57	1210
295.9	1.96	1213
296.45	1.54	1215
297	1.21	1218
297.55	1.15	1221
298.1	1.28	1223
298.65	1.52	1226
299.2	1.58	1229
299.75	1.89	1231
300.3	1.05	1234
300.85	0.99	1236
301.4	0.99	1239
301.95	0.98	1241
302.5	1.03	1244
303.05	0.87	1246
303.6	0.88	1249
304.15	0.93	1252
304.7	0.93	1255
305.25	0.84	1258
305.8	1.59	1261
306.35	1.43	1263
306.9	1.48	1266
307.45	1.22	1269
308	0.69	1271
308.55	1.22	1274
309.1	1.82	1277
309.65	1.36	1280
310.2	1.26	1283
310.75	1.45	1285
311.3	1.5	1288
311.85	0.97	1290
312.4	1.2	1293
312.95	0.99	1296
313.5	1.55	1298
314.05	1.05	1301
314.6	1.17	1304
315.15	0.89	1306
315.7	1.53	1309
316.25	1.93	1312
316.8	1.01	1314
317.35	0.93	1317
317.9	1.16	1320
318.45	0.9	1322
319	0.49	1325
319.55	1.73	1328
320.1	1.09	1331
320.65	2.17	1333
321.2	1.29	1336
321.75	0.77	1339
322.3	0.65	1342
322.85	1.22	1345
323.4	1.24	1347
323.95	0.87	1350
324.5	0.87	1352
325.05	1.37	1355
325.6	1.31	1358
326.15	1.65	1361
326.7	1.53	1363
327.25	1.48	1366
327.8	1.8	1369
328.35	1.41	1372
328.9	1.51	1375
329.45	1.34	1377
330	1.75	1380
330.55	1.13	1383
331.1	1.85	1386
331.65	1.71	1389
332.2	1.16	1392
332.75	1.77	1394
333.3	1.46	1397
333.85	1.14	1399
334.4	0.99	1402
334.95	1.21	1404
335.5	1.04	1407
336.05	0.52	1410
336.6	0.87	1412
337.15	1.37	1415
337.7	1.82	1418
338.25	2	1421
338.8	2.17	1423
339.35	3.32	1426
339.9	1.46	1429
340.45	1.68	1432
341	0.88	1435
341.55	1.23	1438
342.1	2.19	1440
342.65	1.71	1443
343.2	1.5	1446
343.75	1.26	1449
344.3	1.14	1452
344.85	1.52	1455
345.4	1.24	1458
345.95	1.26	1461
346.5	1.52	1463
347.05	1.49	1466
347.6	1.46	1469
348.15	1.34	1472
348.7	1.37	1475
349.25	1.58	1478
349.8	1.52	1480
350.35	1.28	1484
350.9	1.67	1486
351.45	1.12	1489
352	1.01	1492
352.55	0.86	1495
353.1	1.27	1497
353.65	1.74	1500
354.2	0.91	1503
354.75	1.12	1506
355.3	1.24	1509
355.85	1.32	1512
356.4	1.57	1514
356.95	1.6	1517
357.5	1.37	1519
358.05	0.79	1522
358.6	1.33	1525
359.15	1.44	1528
359.7	1.46	1531
360.25	1.43	1534
360.8	1.21	1536
361.35	1.43	1539
361.9	0.93	1542
362.45	1.19	1544
363	1.11	1547
363.55	1.25	1550
364.1	1.34	1553
364.65	1.17	1555
365.2	1.31	1558
365.75	1.26	1560
366.3	1.44	1563
366.85	1.18	1566
367.4	0.91	1569
367.95	0.74	1572
368.5	1.05	1574
369.05	1.37	1577
369.6	1.46	1579
370.15	1.23	1582
370.7	0.94	1585
371.25	1.15	1587
371.8	0.82	1590
372.35	1.08	1593
372.9	1.14	1595
373.45	1.07	1598
374	1.24	1601
374.55	0.9	1604
375.1	1.16	1607
375.65	1.26	1609
376.2	0.96	1612
376.75	0.89	1615
377.3	0.94	1618
377.85	1.07	1621
378.4	1.1	1624
378.95	0.9	1626
379.5	1.18	1629
380.05	1.32	1632
380.6	1.2	1635
381.15	1.52	1638
381.7	1.55	1640
382.25	1.15	1643
382.8	1.29	1647
383.35	1.97	1649
383.9	1.75	1652
384.45	1.82	1655
385	1.54	1658
385.55	1.08	1661
386.1	1.11	1663
386.65	1.12	1666
387.2	1.21	1669
387.75	0.92	1672
388.3	0.89	1675
388.85	1.16	1678
389.4	1.71	1680
389.95	1.09	1683
390.5	1.5	1686
391.05	1.29	1688
391.6	1.56	1691
392.15	1.28	1694
392.7	1.25	1697
393.25	1.22	1700
393.8	1.63	1702
394.35	1.13	1705
394.9	1.35	1708
395.45	1.11	1711
396	1.27	1713
396.55	1.2	1716
397.1	1.05	1719
397.65	0.83	1722
398.2	0.84	1725
398.75	1.15	1728
399.3	1.05	1731
399.85	1.01	1734
400.4	1.1	1737
400.95	0.82	1739
401.5	1.01	1742
402.05	1.29	1745
402.6	1.34	1748
403.15	1.1	1751
403.7	0.99	1754
404.25	1.08	1757
404.8	1.15	1760
405.35	1.75	1763
405.9	1.34	1765
406.45	0.91	1768
407	1.15	1771
407.55	1.03	1774
408.1	0.96	1776
408.65	1.31	1779
409.2	0.94	1782
409.75	1.29	1785
410.3	1.18	1788
410.85	1.24	1791
411.4	0.99	1794
411.95	1.46	1797
412.5	1.6	1800
413.05	2.24	1803
413.6	1	1806
414.15	1.02	1809
414.7	1.08	1811
415.25	0.82	1814
415.8	1.21	1817
416.35	1.06	1820
416.9	1.1	1823
417.45	1.27	1825
418	1.45	1828
418.55	1	1831
419.1	1.12	1834
419.65	1.32	1837
420.2	1.66	1839
420.75	1.36	1843
421.3	1.49	1845
421.85	1.25	1848
422.4	1.28	1851
422.95	1.2	1854
423.5	0.99	1857
424.05	1.28	1859
424.6	1.19	1862
425.15	1.2	1865
425.7	1.31	1868
426.25	1.17	1871
426.8	1.22	1873
427.35	1.01	1876
427.9	1.43	1879
428.45	1.37	1882
429	1.56	1885
429.55	1.1	1887
430.1	0.78	1890
430.65	1.26	1893
431.2	1.25	1896
431.75	1.11	1898
432.3	1.02	1901
432.85	1.29	1904
433.4	1.55	1906
433.95	1.71	1909
434.5	1.64	1912
435.05	1.22	1915
435.6	1.12	1918
436.15	1.11	1921
436.7	1.12	1924
437.25	1.04	1926
437.8	1.46	1929
438.35	0.89	1932
438.9	1.17	1934
439.45	1.26	1937
440	1.3	1940
440.55	1.28	1943
441.1	0.93	1946
441.65	0.94	1949
442.2	1.24	1952
442.75	1.22	1955
443.3	1.33	1957
443.85	1.5	1960
444.4	2.2	1963
444.95	1.9	1966
445.5	1.43	1969
446.05	1.66	1972
446.6	1.38	1975
447.15	1.18	1978
447.7	1.1	1980
448.25	1.22	1983
448.8	1.15	1986
449.35	1.3	1989
449.9	1.31	1992
450.45	1.83	1995
451	1.61	1997
451.55	1.51	2000
452.1	1.61	2003
452.65	0.85	2006
453.2	1.25	2008
453.75	1.33	2011
454.3	1.17	2014
454.85	3.32	2017
455.4	2.53	2020
455.95	1.5	2023
456.5	1.4	2026
457.05	1.24	2030
457.6	1.59	2033
458.15	1.24	2035
458.7	1.22	2038
459.25	1.15	2041
459.8	1.4	2044
460.35	1.56	2047
460.9	1.61	2051
461.45	2.09	2053
462	1.8	2056
462.55	1.7	2059
463.1	1.11	2062
463.65	1.03	2065
464.2	1.21	2068
464.75	1.1	2071
465.3	1.33	2073
465.85	1.33	2076
466.4	1.17	2079
466.95	1.16	2082
467.5	1.08	2085
468.05	1.37	2088
468.6	1.45	2090
469.15	2.1	2094
469.7	1.16	2097
470.25	1.44	2100
470.8	1.78	2103
471.35	1.3	2106
471.9	1.24	2108
472.45	1.54	2111
473	1.31	2114
473.55	1.88	2117
474.1	2.38	2120
474.65	1.7	2123
475.2	1.54	2126
475.75	1.82	2129
476.3	1.09	2132
476.85	0.8	2135
477.4	1.05	2137
477.95	0.97	2140
478.5	1.52	2143
479.05	1.37	2146
479.6	0.94	2149
480.15	0.65	2152
480.7	0.63	2155
481.25	0.79	2158
481.8	0.43	2161
482.35	0.89	2164
482.9	0.72	2167
483.45	0.84	2170
484	1.13	2173
484.55	1.2	2176
485.1	1.02	2179
485.65	1.16	2182
486.2	1.19	2185
486.75	0.88	2188
487.3	1.01	2191
487.85	1.05	2194
488.4	0.9	2197
488.95	1.11	2200
489.5	0.9	2203
490.05	0.89	2205
490.6	0.69	2208
491.15	0.77	2212
491.7	0.93	2215
492.25	1.07	2217
492.8	3.44	2220
493.35	1.14	2223
493.9	0.79	2226
494.45	1.23	2228
495	0.93	2232
495.55	0.65	2234
496.1	0.78	2237
496.65	0.75	2240
497.2	0.7	2243
497.75	0.78	2246
498.3	0.76	2249
498.85	1.09	2251
499.4	1.17	2254
499.95	1.02	2257
500.5	0.87	2260
501.05	1.1	2263
501.6	0.94	2266
502.15	1.26	2269
502.7	1.32	2272
503.25	1.22	2275
503.8	0.72	2278
504.35	0.8	2281
504.9	0.94	2284
505.45	0.76	2287
506	0.88	2290
506.55	0.73	2293
507.1	0.91	2296
507.65	0.63	2299
508.2	0.54	2302
508.75	0.79	2305
509.3	0.75	2308
509.85	1.01	2311
510.4	0.73	2314
510.95	0.89	2317
511.5	0.97	2320
512.05	1.04	2323
512.6	0.93	2326
513.15	1.56	2329
513.7	0.76	2332
514.25	0.81	2334
514.8	0.86	2338
515.35	0.84	2341
515.9	0.86	2344
516.45	0.66	2347
517	0.78	2349
517.55	0.84	2352
518.1	1.14	2355
518.65	1.22	2358
519.2	1	2361
519.75	1.18	2364
520.3	1.25	2367
520.85	1.23	2370
521.4	0.9	2373
521.95	1.28	2376
522.5	1.36	2379
523.05	1.57	2381
523.6	0.8	2384
524.15	0.85	2387
524.7	1.4	2390
525.25	1.02	2393
525.8	1.31	2396
526.35	3.39	2399
526.9	1.1	2402
527.45	1.15	2405
528	1.18	2409
528.55	1.4	2411
529.1	1.45	2414
529.65	1.28	2418
530.2	1.12	2420
530.75	1.35	2423
531.3	1.44	2426
531.85	1.13	2430
532.4	1.39	2433
532.95	1.06	2435
533.5	0.65	2438
534.05	1.09	2442
534.6	0.92	2444
535.15	0.65	2447
535.7	1.01	2450
536.25	1.33	2453
536.8	1.11	2456
537.35	0.82	2459
537.9	1.35	2462
538.45	1.91	2465
539	1.47	2468
539.55	1.03	2471
540.1	0.87	2474
540.65	0.91	2477
541.2	0.86	2480
541.75	1.28	2483
542.3	1.24	2486
542.85	1.33	2489
543.4	1.05	2492
543.95	1.13	2495
544.5	1.1	2497
545.05	0.78	2500
545.6	0.96	2503
546.15	0.65	2506
546.7	0.59	2509
547.25	1.17	2512
547.8	1.01	2515
548.35	0.99	2517
548.9	0.94	2520
549.45	1.22	2523
550	1.29	2526
550.55	1.09	2529
551.1	1.54	2532
551.65	0.86	2535
552.2	1.09	2538
552.75	1.17	2541
553.3	2.21	2545
553.85	1.37	2548
554.4	1.11	2551
554.95	1.17	2553
555.5	0.81	2557
556.05	1.01	2560
556.6	0.98	2563
557.15	0.88	2566
557.7	0.91	2569
558.25	0.6	2572
558.8	0.9	2575
559.35	1.08	2578
559.9	0.64	2580
560.45	1.04	2583
561	0.88	2586
561.55	0.98	2589
562.1	1.16	2592
562.65	0.73	2596
563.2	1.32	2598
563.75	1.32	2601
564.3	1.08	2604
564.85	1.06	2607
565.4	1.18	2611
565.95	1.08	2614
566.5	1.41	2617
567.05	1.32	2620
567.6	1.21	2623
568.15	1.3	2626
568.7	1.63	2629
569.25	1.5	2632
569.8	1.24	2635
570.35	1.21	2638
570.9	1.2	2641
571.45	1.28	2644
572	1.73	2647
572.55	1.35	2650
573.1	1.43	2653
573.65	1.52	2657
574.2	1.71	2659
574.75	1.37	2662
575.3	0.97	2665
575.85	0.82	2668
576.4	1.4	2671
576.95	1.33	2675
577.5	1.23	2677
578.05	1.25	2680
578.6	1.14	2683
579.15	1.19	2686
579.7	1.32	2689
580.25	2.21	2693
580.8	1.48	2696
581.35	1.47	2699
581.9	1.42	2702
582.45	0.74	2705
583	0.87	2708
583.55	1.1	2711
584.1	0.9	2715
584.65	0.94	2718
585.2	1.11	2721
585.75	2.38	2724
586.3	3.02	2727
586.85	2.06	2730
587.4	0.78	2733
587.95	1.04	2736
588.5	1.23	2739
589.05	0.88	2742
589.6	0.62	2746
590.15	1.13	2749
590.7	0.91	2752
591.25	0.92	2755
591.8	0.83	2758
592.35	1.06	2761
592.9	1.17	2764
593.45	0.91	2767
594	0.75	2770
594.55	1.04	2773
595.1	1.22	2776
595.65	1	2780
596.2	1.06	2783
596.75	0.86	2786
597.3	0.94	2789
597.85	1.12	2792
598.4	1.54	2795
598.95	1.27	2798
599.5	1.6	2801
600.05	1.24	2804
600.6	1.23	2807
601.15	1.2	2810
601.7	1.32	2813
602.25	0.99	2816
602.8	0.68	2819
603.35	0.82	2822
603.9	1.12	2825
604.45	1.06	2828
605	1.06	2831
605.55	1	2835
606.1	1.5	2838
606.65	1.26	2841
607.2	1.19	2844
607.75	1.12	2847
608.3	0.95	2850
608.85	1.31	2854
609.4	1.3	2857
609.95	2.24	2860
610.5	1.14	2864
611.05	0.94	2867
611.6	1.12	2869
612.15	0.84	2872
612.7	0.86	2875
613.25	0.91	2879
613.8	0.98	2882
614.35	1.25	2885
614.9	0.94	2888
615.45	1.07	2891
616	1.1	2895
616.55	0.64	2898
617.1	0.52	2901
617.65	0.91	2904
618.2	1.04	2908
618.75	0.96	2911
619.3	1.18	2914
619.85	1.35	2917
620.4	1.94	2920
620.95	1.24	2923
621.5	0.89	2926
622.05	0.84	2929
622.6	1.29	2932
623.15	1.11	2935
623.7	0.87	2938
624.25	1	2941
624.8	1.07	2944
625.35	1.29	2947
625.9	1.53	2950
626.45	1.32	2953
627	1.19	2956
627.55	1.2	2960
628.1	1.47	2963
628.65	1.36	2966
629.2	1.71	2969
629.75	1.57	2972
630.3	1.35	2975
630.85	1.39	2978
631.4	1.68	2981
631.95	1.15	2984
632.5	1.76	2988
633.05	1.32	2991
633.6	1.32	2994
634.15	1.65	2997
634.7	0.93	3000
635.25	0.75	3003
635.8	1.34	3007
636.35	1.04	3010
636.9	0.61	3013
637.45	0.9	3017
638	0.86	3019
638.55	0.99	3023
639.1	0.99	3026
639.65	1.08	3029
640.2	1.59	3032
640.75	1.09	3036
641.3	2.16	3039
641.85	1.7	3042
642.4	1.56	3045
642.95	1.52	3048
643.5	1.3	3052
644.05	1.26	3055
644.6	1.62	3058
645.15	1.63	3061
645.7	1.15	3064
646.25	1.26	3067
646.8	1.4	3071
647.35	1.06	3074
647.9	1.09	3077
648.45	1.1	3080
649	1.28	3083
649.55	1.01	3086
650.1	1.52	3090
650.65	0.97	3093
651.2	1.29	3096
651.75	1.37	3100
652.3	1.26	3103
652.85	1.18	3106
653.4	1.61	3109
653.95	0.71	3112
654.5	0.77	3116
655.05	1.01	3119
655.6	0.96	3122
656.15	0.95	3126
656.7	0.78	3129
657.25	0.72	3132
657.8	0.75	3135
658.35	0.62	3139
658.9	1.69	3142
659.45	1.19	3145
660	1.23	3149
660.55	1.01	3152
661.1	1.72	3155
661.65	1.1	3158
662.2	1.02	3161
662.75	1.05	3164
663.3	1.19	3167
663.85	1.62	3170
664.4	1.39	3173
664.95	1.49	3176
665.5	1.34	3180
666.05	0.96	3183
666.6	1.21	3186
667.15	0.97	3190
667.7	1.12	3193
668.25	1.04	3196
668.8	1.33	3199
669.35	1.45	3202
669.9	1.12	3206
670.45	1.05	3209
671	1.34	3213
671.55	1.28	3216
672.1	1.2	3219
672.65	1.37	3222
673.2	1.55	3225
673.75	1.19	3229
674.3	1.22	3232
674.85	1.03	3235
675.4	1.08	3238
675.95	1.04	3241
676.5	1.24	3244
677.05	1.16	3247
677.6	0.98	3251
678.15	1.03	3254
678.7	0.76	3257
679.25	0.72	3260
679.8	0.83	3263
680.35	1.61	3266
680.9	1.15	3269
681.45	0.96	3273
682	0.91	3276
682.55	1.46	3279
683.1	1.09	3282
683.65	0.97	3285
684.2	1.17	3288
684.75	0.99	3291
685.3	1.15	3295
685.85	1.11	3298
686.4	1.16	3301
686.95	1.01	3304
687.5	0.97	3307
688.05	1.18	3310
688.6	1	3313
689.15	1.14	3316
689.7	1.53	3319
690.25	1.25	3322
690.8	0.99	3326
691.35	1.06	3329
691.9	1.08	3332
692.45	0.62	3336
693	0.73	3339
693.55	1.09	3342
694.1	0.73	3345
694.65	0.6	3348
695.2	0.4	3352
695.75	0.53	3355
696.3	1.04	3358
696.85	0.6	3361
697.4	0.86	3364
697.95	1.02	3367
698.5	0.93	3371
699.05	0.68	3374
699.6	1.03	3377
700.15	0.91	3381
700.7	1.29	3384
701.25	2	3387
701.8	2.13	3391
702.35	0.79	3394
702.9	0.41	3397
703.45	0.61	3400
704	1.08	3403
704.55	0.9	3407
705.1	0.76	3410
705.65	1.61	3413
706.2	1.68	3417
706.75	1.19	3420
707.3	1.6	3423
707.85	1.22	3426
708.4	1.58	3430
708.95	1.53	3433
709.5	1.08	3437
710.05	1.08	3440
710.6	1.09	3443
711.15	0.76	3447
711.7	1.51	3450
712.25	1.35	3453
712.8	1.39	3457
713.35	1.47	3460
713.9	1.09	3464
714.45	1.01	3467
715	0.97	3470
715.55	0.94	3473
716.1	1.09	3477
716.65	1.13	3480
717.2	0.99	3483
717.75	0.74	3487
718.3	0.84	3490
718.85	1.23	3493
719.4	1.24	3496
719.95	1.41	3499
720.5	1.1	3503
721.05	1.08	3506
721.6	1.3	3509
722.15	1.11	3513
722.7	0.82	3516
723.25	0.98	3519
723.8	1.26	3522
724.35	0.89	3525
724.9	1.44	3529
725.45	1.54	3532
726	1.03	3536
726.55	0.95	3539
727.1	1.14	3542
727.65	1.26	3545
728.2	1.13	3549
728.75	0.87	3552
729.3	1.1	3555
729.85	0.93	3559
730.4	0.77	3562
730.95	0.68	3565
731.5	1.29	3568
732.05	1.07	3572
732.6	1.12	3576
733.15	2.15	3579
733.7	1.55	3582
734.25	1.74	3586
734.8	1.15	3589
735.35	1	3593
735.9	2.39	3596
736.45	2.34	3599
737	0.84	3603
737.55	1.09	3606
738.1	0.69	3610
738.65	1.15	3613
739.2	1.34	3616
739.75	1.26	3620
740.3	1.65	3623
740.85	1.19	3626
741.4	1.56	3630
741.95	1.26	3633
742.5	1.18	3637
743.05	1.8	3640
743.6	1.62	3643
744.15	1.36	3647
744.7	1.02	3650
745.25	1.26	3654
745.8	1.18	3657
746.35	1.02	3660
746.9	0.99	3663
747.45	1.05	3667
748	1.41	3670
748.55	1.04	3674
749.1	1.18	3677
749.65	0.99	3680
750.2	1.35	3683
750.75	1.32	3687
751.3	1.44	3690
751.85	1.29	3693
752.4	0.75	3696
752.95	0.93	3700
753.5	1.65	3703
754.05	1.32	3706
754.6	2.04	3709
755.15	1.64	3713
755.7	1.34	3716
756.25	1.4	3719
756.8	1.2	3723
757.35	1.42	3726
757.9	1.32	3729
758.45	1.33	3733
759	1.68	3737
759.55	1.38	3740
760.1	1.35	3744
760.65	1.55	3747
761.2	1.74	3750
761.75	2.38	3754
762.3	1.97	3757
762.85	1.35	3761
763.4	1.38	3764
763.95	1.4	3767
764.5	1.57	3771
765.05	1.64	3774
765.6	1.23	3778
766.15	1.6	3781
766.7	1.32	3784
767.25	1.32	3788
767.8	1.34	3791
768.35	1.62	3795
768.9	1.01	3798
769.45	1.07	3802
770	1.1	3805
770.55	1.09	3809
771.1	1.23	3812
771.65	1.24	3815
772.2	1.44	3819
772.75	1.26	3822
773.3	1.34	3825
773.85	0.75	3829
774.4	1.51	3832
774.95	1.47	3836
775.5	1.38	3839
776.05	1.42	3843
776.6	1.7	3846
777.15	1.22	3849
777.7	1.01	3853
778.25	1.29	3856
778.8	1.39	3859
779.35	1.42	3863
779.9	0.73	3867
780.45	1.13	3871
781	1.61	3874
781.55	1.38	3878
782.1	1.28	3881
782.65	1.29	3885
783.2	1.06	3888
783.75	1.46	3891
784.3	1.89	3895
784.85	1.05	3898
785.4	1.47	3902
785.95	1.45	3905
786.5	1.33	3909
787.05	1.16	3912
787.6	1.49	3915
788.15	2.24	3919
788.7	1.14	3922
789.25	1.23	3926
789.8	1.47	3929
790.35	1.32	3933
790.9	1.24	3936
791.45	1.07	3939
792	1.17	3943
792.55	1.07	3946
793.1	1.12	3950
793.65	1.18	3953
794.2	1.31	3957
794.75	0.96	3961
795.3	1.17	3964
795.85	1.24	3967
796.4	1.34	3971
796.95	1	3974
797.5	1.16	3977
798.05	0.98	3981
798.6	0.91	3985
799.15	0.76	3988
799.7	1.17	3992
800.25	1.36	3995
800.8	1.08	3998
801.35	0.87	4002
801.9	0.94	4005
802.45	2.88	4009
803	1.17	4012
803.55	1.33	4016
804.1	1.35	4019
804.65	1.02	4023
805.2	1.15	4026
805.75	1.08	4030
806.3	1.21	4033
806.85	1.12	4037
807.4	1.12	4040
807.95	1.09	4043
808.5	1.07	4046
809.05	0.88	4050
809.6	0.57	4053
810.15	0.76	4057
810.7	0.82	4060
811.25	1.31	4064
811.8	1.19	4068
812.35	1.13	4071
812.9	1.5	4075
813.45	1.35	4078
814	1.48	4082
814.55	1.1	4085
815.1	1.32	4088
815.65	1.65	4092
816.2	1.39	4095
816.75	0.96	4099
817.3	1.25	4102
817.85	1.38	4106
818.4	1.1	4109
818.95	1.25	4112
819.5	1.15	4116
820.05	0.95	4120
820.6	1.19	4123
821.15	1.06	4127
821.7	1.36	4130
822.25	1.62	4134
822.8	1.25	4137
823.35	1.31	4141
823.9	1.33	4145
824.45	1.13	4148
825	1.33	4152
825.55	1.26	4155
826.1	1.55	4159
826.65	1.29	4163
827.2	0.94	4166
827.75	1.23	4170
828.3	1.44	4173
828.85	1.27	4177
829.4	1.23	4181
829.95	0.95	4184
830.5	1.18	4188
831.05	1.2	4191
831.6	1.11	4195
832.15	1.43	4198
832.7	1.43	4202
833.25	1.3	4205
833.8	1.33	4209
834.35	1.13	4212
834.9	1.44	4216
835.45	1.1	4219
836	1.3	4223
836.55	1.3	4227
837.1	1.13	4230
837.65	1.3	4234
838.2	1.11	4237
838.75	1.4	4241
839.3	1.41	4244
839.85	1.15	4248
840.4	1.42	4252
840.95	1.47	4255
841.5	1.29	4258
842.05	1.18	4262
842.6	1.06	4265
843.15	1.17	4270
843.7	1.32	4273
844.25	1.07	4277
844.8	0.88	4280
845.35	1.27	4284
845.9	1.11	4288
846.45	1.3	4292
847	1.28	4295
847.55	1.49	4299
848.1	1.26	4302
848.65	1.34	4306
849.2	1.22	4309
849.75	1.53	4313
850.3	0.85	4316
850.85	1.26	4320
851.4	1.32	4324
851.95	1.2	4327
852.5	1.21	4331
853.05	1.22	4334
853.6	0.71	4338
854.15	0.94	4342
854.7	0.93	4345
855.25	1.08	4349
855.8	1.09	4353
856.35	1.21	4356
856.9	1.27	4360
857.45	1.48	4364
858	1.46	4368
858.55	0.96	4371
859.1	0.7	4375
859.65	0.85	4378
860.2	0.45	4382
860.75	0.66	4385
861.3	0.64	4389
861.85	0.75	4392
862.4	0.94	4396
862.95	0.86	4399
863.5	0.72	4403
864.05	1.36	4407
864.6	1.43	4411
865.15	1.4	4414
865.7	1.56	4418
866.25	1.37	4421
866.8	1.47	4425
867.35	1.29	4428
867.9	1.68	4432
868.45	1.13	4435
869	0.99	4439
869.55	1.74	4443
870.1	1.64	4447
870.65	1.39	4450
871.2	1.3	4454
871.75	1.15	4458
872.3	1.27	4462
872.85	1.11	4465
873.4	1.65	4469
873.95	1.4	4472
874.5	1.48	4476
875.05	1.42	4480
875.6	1.6	4484
876.15	1.68	4487
876.7	1.2	4491
877.25	1.36	4495
877.8	1.37	4498
878.35	1.25	4502
878.9	1.23	4506
879.45	1.5	4509
880	1.41	4513
880.55	1.24	4517
881.1	1.74	4520
881.65	1.23	4524
882.2	1.11	4528
882.75	1.27	4532
883.3	1.12	4535
883.85	1.29	4539
884.4	1.15	4542
884.95	1.28	4546
885.5	1.4	4550
886.05	1.04	4553
886.6	1.17	4557
887.15	1.39	4561
887.7	1.19	4564
888.25	1.27	4568
888.8	1.71	4572
889.35	1.61	4576
889.9	1.4	4579
890.45	1.46	4583
891	1.31	4587
891.55	1.39	4591
892.1	1.43	4595
892.65	1.1	4599
893.2	1.72	4602
893.75	1.78	4606
894.3	1.63	4610
894.85	1.55	4613
895.4	1.37	4617
895.95	1.29	4621
896.5	1.43	4625
897.05	1.04	4629
897.6	1.32	4633
898.15	1.33	4636
898.7	1.22	4640
899.25	2.08	4644
899.8	2.18	4647
900.35	1.5	4651
900.9	1.29	4654
901.45	1.19	4658
902	1.32	4662
902.55	0.85	4665
903.1	1.02	4669
903.65	1.23	4673
904.2	1.49	4677
904.75	1.18	4681
905.3	1.23	4685
905.85	1.19	4688
906.4	1.31	4692
906.95	1.2	4696
907.5	1.2	4700
908.05	1.66	4704
908.6	1.55	4708
909.15	1.14	4712
909.7	1.44	4716
910.25	1.41	4719
910.8	1.51	4723
911.35	1.54	4727
911.9	1.55	4731
912.45	1.43	4735
913	1.26	4739
913.55	1.05	4743
914.1	1.15	4747
914.65	0.86	4750
915.2	1.11	4754
915.75	1.17	4758
916.3	1.48	4761
916.85	1.08	4765
917.4	1.11	4769
917.95	1.42	4773
918.5	1	4776
919.05	1.25	4780
919.6	1.34	4784
920.15	1.47	4788
920.7	1.85	4792
921.25	1.46	4796
921.8	1.38	4800
922.35	1.25	4804
922.9	1.41	4807
923.45	1.28	4811
924	1.48	4815
924.55	1.31	4819
925.1	1.2	4822
925.65	1.39	4826
926.2	1.68	4830
926.75	1.64	4834
927.3	0.9	4837
927.85	1.18	4841
928.4	1.6	4845
928.95	1.2	4849
929.5	1.19	4852
930.05	1.32	4856
930.6	1.24	4860
931.15	1.94	4864
931.7	2.12	4868
932.25	1.31	4871
932.8	1.43	4875
933.35	1.72	4879
933.9	1.41	4883
934.45	1.43	4887
935	1.42	4891
935.55	1.54	4895
936.1	1.05	4898
936.65	1.4	4902
937.2	1.55	4906
937.75	1.75	4909
938.3	1.32	4913
938.85	1.15	4917
939.4	1.58	4921
939.95	1.17	4925
940.5	1.07	4929
941.05	1.35	4933
941.6	1.39	4936
942.15	1.31	4940
942.7	1.5	4944
943.25	1.34	4947
943.8	1.52	4951
944.35	2.03	4955
944.9	1.54	4959
945.45	1.7	4963
946	1.73	4967
946.55	1.9	4970
947.1	1.67	4975
947.65	2.02	4978
948.2	1.76	4982
948.75	2.15	4986
949.3	1.68	4989
949.85	1.79	4993
950.4	1.5	4997
950.95	1.26	5001
951.5	1.41	5005
952.05	1.37	5009
952.6	1.14	5012
953.15	1.43	5016
953.7	1.94	5020
954.25	1.98	5023
954.8	1.61	5027
955.35	1.58	5031
955.9	1.56	5035
956.45	1.94	5039
957	1.75	5043
957.55	1.81	5047
958.1	2.05	5051
958.65	2.3	5054
959.2	2.2	5058
959.75	1.83	5062
960.3	2.14	5066
960.85	2.37	5070
961.4	2.51	5074
961.95	2.38	5078
962.5	2.67	5082
963.05	2.71	5085
963.6	2.24	5089
964.15	1.99	5093
964.7	2.01	5097
965.25	1.9	5101
965.8	2.69	5105
966.35	1.65	5110
966.9	1.62	5113
967.45	1.49	5117
968	1.61	5121
968.55	1.73	5125
969.1	2.14	5129
969.65	1.77	5132
970.2	1.33	5136
970.75	1.88	5140
971.3	2.19	5144
971.85	2.45	5148
972.4	1.97	5152
972.95	2.19	5156
973.5	1.95	5160
974.05	1.86	5163
974.6	1.33	5167
975.15	1.44	5171
975.7	1.68	5175
976.25	1.59	5180
976.8	1.71	5184
977.35	1.82	5188
977.9	1.86	5191
978.45	1.39	5195
979	1.48	5200
979.55	1.34	5203
980.1	1.16	5207
980.65	1.6	5211
981.2	1.9	5215
981.75	1.89	5219
982.3	1.81	5223
982.85	1.51	5227
983.4	1.62	5231
983.95	1.61	5235
984.5	1.86	5239
985.05	1.73	5243
985.6	1.63	5247
986.15	1.73	5251
986.7	1.15	5256
987.25	1.69	5260
987.8	1.67	5264
988.35	2	5268
988.9	1.38	5272
989.45	1.51	5276
990	1.6	5280
990.55	1.81	5284
991.1	1.73	5288
991.65	1.3	5292
992.2	1.43	5296
992.75	1.45	5300
993.3	1.7	5304
993.85	1.59	5308
994.4	1.39	5312
994.95	0.91	5316
995.5	1.42	5320
996.05	1.54	5324
996.6	1.57	5327
997.15	1.88	5332
997.7	1.76	5336
998.25	1.74	5340
998.8	1.47	5344
999.35	1.25	5348
